   Temperature:        Energy:            Cv: Magnetization:       Chi (X):|Magnetization|:
      1.0000000     -1.9961720    0.030565386   -0.011967500   0.0038125026     0.99872550
      1.0000000     -1.9959320    0.032477806   -0.030707000   0.0040786125     0.99864100
      1.0000000     -1.9957900    0.033609104    0.026353500   0.0042330645     0.99859150
      1.0000000     -1.9960360    0.031649147   -0.045684500   0.0039340568     0.99868250
      1.0000000     -1.9959820    0.032079423   -0.038225500   0.0039758871     0.99866650
      1.0000000     -1.9960800    0.031298534    0.041999500   0.0038462867     0.99870450
      1.0000000     -1.9962620    0.029848109    0.031508000   0.0037317899     0.99875400
      1.0000000     -1.9961040    0.031107285   -0.079674500   0.0038463281     0.99870850
      1.0000000     -1.9961700    0.030581324    0.031390000   0.0037655788     0.99873300
      1.0000000     -1.9961540    0.030708833    0.041720500   0.0038304413     0.99871950
